//DT in units of [mm^2 s^-1]
//pure molybdenum
//C. Y. Ho, R. W. Powell, and P. E. Liley, “Thermal Conductivity of the Elements,”
//Journal of Physical and Chemical Reference Data, vol. 1, no. 2, pp. 279–421, Apr. 1972,
//doi: 10.1063/1.3253100.
(
273	55.8000000
300	54.3000000
350	52.1000000
400	50.3000000
500	47.5000000
600	45.1000000
700	43.2000000
800	41.5000000
900	39.6000000
1000	37.6000000
1100	35.7000000
1200	33.9000000
1300	32.2000000
1400	30.6000000
1500	29.3000000
1600	28.2000000
1700	27.1000000
1800	26.2000000
1900	25.3000000
2000	24.6000000
2200	23.2000000
2400	22.0000000
2600	21.0000000
2800	20.2000000
2894	19.9000000
)
